Oxysoft export of:	C:\Users\NIRS\Desktop\colm1222
Export date:	2016/11/23 17:17:46
Start of measurement:	2016-11-23 17:13:14.284

Datafile sample rate:	10.00	Hz
Datafile duration:	228.00	s
Datafile total number of samples:	2280

Description:	

Optode-template:	3 x 1 channel (split) I
Optode distance (mm):	 10.00	10.00	10.00
Optode gradients (mm):	 -	-	-
DPF:	4.00	4.00	4.00

Device id:	10221
# Receivers:	2
# Light sources:	8
# ADC:	0

Light source wavelengths:
device	index	wavelength
1	1	847	nm
1	2	762	nm
1	3	847	nm
1	4	761	nm
1	5	847	nm
1	6	761	nm
1	7	847	nm
1	8	761	nm

Export sample rate:	10.00	Hz
No time span selected, exporting full time span



Legend:
Column	Trace (Measurement)
1	(Sample number)
2	Rx1 - Tx1 O2Hb (colm1222)
3	Rx1 - Tx1 HHb (colm1222)
4	Rx2a - Tx2 O2Hb (colm1222)
5	Rx2a - Tx2 HHb (colm1222)
6	Rx2b - Tx3 O2Hb (colm1222)
7	Rx2b - Tx3 HHb (colm1222)
8	(Event)


1	2	3	4	5	6	7	8
     0	130.2228	54.4122	30.8099	-6.6164	-53.3936	-6.3348	 
     1	130.2228	54.4122	25.7857	 0.7114	-52.8170	-6.0604	 
     2	130.2228	54.4122	29.7353	-0.7470	-51.5347	-5.8592	 
     3	130.2228	54.4122	29.8464	-5.2110	-51.0527	-5.2875	 
     4	130.2228	54.4122	31.8212	-5.9403	-48.6732	-4.2170	 
     5	130.2228	54.4122	22.9416	 0.6371	-48.4064	-4.1281	 
     6	130.2228	54.4122	32.7847	-7.3456	-49.4004	-4.5108	 
     7	130.2228	54.4122	26.8736	-3.0263	-48.9486	-4.4527	 
     8	130.2228	54.4122	29.8464	-5.2110	-47.8384	-4.0005	 
     9	130.2228	54.4122	24.1668	-5.2129	-48.4838	-4.1745	 
    10	130.2228	54.4122	29.8464	-5.2110	-49.2110	-4.4682	 
    11	130.2228	54.4122	27.8716	-4.4818	-49.8651	-4.7890	 
    12	130.2228	54.4122	26.9334	-5.1850	-49.7833	-4.6692	 
    13	130.2228	54.4122	29.8464	-5.2110	-48.8927	-4.7732	 
    14	130.2228	54.4122	26.8736	-3.0263	-49.4349	-5.0978	 
    15	130.2228	54.4122	30.8099	-6.6164	-49.1638	-4.9355	 
    16	130.2228	54.4122	23.0703	-1.6219	-48.7421	-4.7538	 
    17	130.2228	54.4122	23.9740	-0.8686	-49.3875	-4.9278	 
    18	130.2228	54.4122	27.8716	-4.4818	-50.1664	-5.4649	 
    19	130.2228	54.4122	25.9699	-3.7796	-50.6183	-6.1601	 
    20	130.2228	54.4122	24.8433	-0.0651	-51.3843	-6.4770	 
    21	130.2228	54.4122	32.7980	-5.2139	-51.8705	-6.4849	 
    22	130.2228	54.4122	26.8736	-3.0263	-50.8850	-5.6118	 
    23	130.2228	54.4122	28.8484	-3.7555	-48.8368	-5.0937	 
    24	130.2228	54.4122	24.0682	-3.0774	-48.8927	-4.7732	 
    25	130.2228	54.4122	27.8505	-2.3000	-47.2445	-3.4327	 
    26	130.2228	54.4122	25.9699	-3.7796	-46.2203	-2.5364	 
    27	130.2228	54.4122	21.2418	-0.9467	-46.2848	-2.3627	 
    28	130.2228	54.4122	24.1966	-7.2480	-45.5834	-1.8720	 
    29	130.2228	54.4122	24.1966	-7.2480	-43.3543	-0.1837	 
    30	130.2228	54.4122	17.9282	-3.9213	-42.7604	 0.3841	 
    31	130.2228	54.4122	20.6811	-7.9365	-42.8206	 0.6313	 
    32	130.2228	54.4122	22.3680	-6.5728	-40.9230	 1.1300	 
    33	130.2228	54.4122	22.3383	-4.5377	-45.4890	-3.4437	 
    34	130.2228	54.4122	32.8156	-3.0089	-50.9544	-8.6973	 
    35	130.2228	54.4122	30.5965	 2.4585	-51.1610	-9.0334	 
    36	130.2228	54.4122	36.9846	-4.5484	-49.9948	-8.2645	 
    37	130.2228	54.4122	32.7980	-5.2139	-47.0127	-6.4794	 
    38	130.2228	54.4122	28.7929	-1.5235	-44.5728	-5.0189	 
    39	130.2228	54.4122	22.0723	-0.1664	-42.9592	-4.2654	 
    40	130.2228	54.4122	23.0703	-1.6219	-41.4144	-3.4114	 
    41	130.2228	54.4122	21.3748	-3.1324	-39.5855	-2.1751	 
    42	130.2228	54.4122	25.9953	-5.8881	-37.4426	-1.3171	 
    43	130.2228	54.4122	17.7909	-1.8090	-36.8186	-0.8728	 
    44	130.2228	54.4122	25.0959	-6.5680	-34.4907	-0.0457	 
    45	130.2228	54.4122	18.0310	-5.9834	-32.6834	 0.8238	 
    46	130.2228	54.4122	20.6127	-5.9246	-32.2144	 1.1754	 
    47	130.2228	54.4122	21.5418	-7.2798	-31.5216	 1.5193	 
    48	130.2228	54.4122	20.6808	-9.8481	-27.4812	 2.2389	 
    49	130.2228	54.4122	15.5613	-6.0460	-25.1275	 2.8691	 
    50	130.2228	54.4122	16.3488	-5.3622	-24.1121	 2.9814	 
    51	130.2228	54.4122	18.1382	-7.9721	-20.4288	 3.9828	 
    52	130.2228	54.4122	12.2699	-4.8306	-17.5803	 4.7677	 
    53	130.2228	54.4122	21.5758	-9.2415	-18.2300	 4.5203	 
    54	130.2228	54.4122	21.5418	-7.2798	-18.7420	 4.7094	 
    55	130.2228	54.4122	22.4362	-10.4962	-17.6017	 5.0380	 
    56	130.2228	54.4122	17.3163	-8.6057	-18.7420	 4.7094	 
    57	130.2228	54.4122	13.7374	-3.3859	-18.7033	 4.7325	 
    58	130.2228	54.4122	18.9985	-9.2269	-18.8711	 4.4197	 
    59	130.2228	54.4122	14.4905	-2.6519	-20.5966	 3.6700	 
    60	130.2228	54.4122	12.0552	-2.7647	-22.2404	 3.0400	 
    61	130.2228	54.4122	14.7738	-6.7298	-19.6630	 3.6625	 
    62	130.2228	54.4122	14.6666	-4.7410	-19.0133	 3.2727	 
    63	130.2228	54.4122	17.1019	-4.6282	-21.8447	 2.1442	 
    64	130.2228	54.4122	19.7864	-6.6316	-23.1527	 2.1399	 
    65	130.2228	54.4122	10.9156	 0.7297	-23.4410	 2.3213	 
    66	130.2228	54.4122	16.0355	-1.1608	-24.2757	 2.1048	 
    67	130.2228	54.4122	21.4389	-5.2177	-24.7706	 1.9501	 
    68	130.2228	54.4122	18.7544	-3.2143	-24.5081	 1.9657	 
    69	130.2228	54.4122	11.1261	-1.4096	-23.3162	 2.5376	 
    70	-94.8585	138.9094	17.9282	-3.9213	-22.4254	 3.0708	 
    71	-94.8585	138.9094	16.1728	-3.2731	-20.3771	 4.2261	 
    72	-93.0196	138.2191	20.6127	-5.9246	-20.1878	 4.2686	 
    73	-93.3874	138.3572	17.9282	-3.9213	-21.2119	 4.0096	 
    74	-93.3874	138.3572	20.5098	-3.8625	-20.2824	 4.5660	 
    75	-93.5345	138.4124	20.6127	-5.9246	-19.4433	 4.8559	 
    76	-94.0494	138.6057	16.3488	-5.3622	-19.7531	 4.6704	 
    77	-94.5643	138.7990	26.0251	-7.9232	-19.7919	 4.6472	 
    78	-94.9321	138.9370	13.3166	 0.8927	-19.4046	 4.8790	 
    79	-95.2999	139.0751	12.8083	-2.0307	-18.9571	 4.8637	 
    80	-94.6379	138.8266	19.5462	-2.4572	-17.8942	 5.7832	 
    81	-94.1965	138.6609	20.2438	 0.5088	-16.9819	 6.0461	 
    82	-94.5643	138.7990	23.0703	-1.6219	-17.4467	 5.7679	 
    83	-94.7114	138.8542	23.2674	-5.8929	-17.1024	 5.9031	 
    84	-94.6379	138.8266	25.0318	-4.4828	-16.7496	 6.1852	 
    85	-95.0056	138.9646	23.2033	-3.8076	-17.2530	 5.8838	 
    86	-95.4470	139.1303	14.0740	 1.7000	-17.7866	 5.7060	 
    87	-95.6676	139.2132	14.0740	 1.7000	-17.5586	 5.7717	 
    88	-95.8883	139.2960	21.3748	-3.1324	-17.7048	 5.8257	 
    89	-95.4470	139.1303	24.0682	-3.0774	-16.9560	 6.4863	 
    90	-95.0056	138.9646	17.3829	 2.6897	-16.0739	 6.8728	 
    91	-95.4470	139.1303	17.3829	 2.6897	-16.3881	 6.6139	 
    92	-95.6676	139.2132	19.4133	-0.2715	-15.9707	 6.7222	 
    93	-95.6676	139.2132	18.7544	-3.2143	-15.5834	 6.9540	 
    94	40.9636	-60.4629	14.8314	 2.5074	-16.1944	 6.7298	 
    95	40.5958	-60.3249	18.4153	 1.1840	-16.7624	 6.6022	 
    96	-0.7629	-0.2419	18.5827	-1.0518	-16.8786	 6.5327	 
    97	-0.8055	-0.3391	18.4153	 1.1840	-16.9517	 6.5597	 
    98	-0.3525	-0.2828	22.2397	-2.4022	-16.1685	 7.1701	 
    99	-0.0118	-0.2220	19.2115	 2.0145	-15.2563	 7.4330	 
   100	-0.3873	-0.2320	17.7909	-1.8090	-16.4310	 7.1545	 
   101	-0.4996	-0.2275	19.4133	-0.2715	-16.2330	 7.3438	 
   102	-0.4261	-0.2552	24.9720	-2.3241	-15.6564	 7.6182	 
   103	-0.7242	-0.2187	24.9720	-2.3241	-16.0437	 7.3864	 
   104	-0.9139	-0.2607	14.8314	 2.5074	-16.1255	 7.2666	 
   105	-1.0649	-0.2794	21.2418	-0.9467	-15.8587	 7.3555	 
   106	-1.1772	-0.2750	17.5847	 0.4037	-15.8630	 7.2822	 
   107	-0.5345	-0.1767	21.0400	 1.3393	-14.3956	 8.0897	 
   108	-0.3447	-0.1348	18.4153	 1.1840	-13.3071	 8.1751	 
   109	-0.5345	-0.1767	22.0723	-0.1664	-13.8062	 7.9471	 
   110	-0.6080	-0.1491	23.9740	-0.8686	-13.4921	 8.2059	 
   111	-0.6428	-0.0983	21.2418	-0.9467	-13.1521	 8.2678	 
   112	-0.8326	-0.1403	14.5221	 4.8706	-13.7675	 7.9702	 
   113	-1.0610	-0.2054	22.0723	-0.1664	-13.7718	 7.8969	 
   114	-1.2120	-0.2242	19.2115	 2.0145	-13.3200	 7.9549	 
   115	-1.2120	-0.2242	23.8109	 1.4406	-13.1220	 8.1442	 
   116	-0.6777	-0.0475	22.9416	 0.6371	-10.8845	 8.7049	 
   117	-0.7164	-0.0707	15.5544	 3.3649	-10.9061	 8.3380	 
   118	-0.8674	-0.0895	22.9416	 0.6371	-10.9922	 8.1449	 
   119	-0.7125	 0.0033	21.9093	 2.1428	-10.4974	 8.2995	 
   120	-0.7861	 0.0309	21.0400	 1.3393	-11.0138	 7.7781	 
   121	-1.0493	 0.0166	20.0076	 2.8450	-11.4011	 7.5462	 
   122	-1.2391	-0.0254	17.1123	 5.0761	-11.5043	 7.6968	 
   123	-1.2391	-0.0254	22.2397	-2.4022	-10.8115	 8.0407	 
   124	-0.8596	 0.0585	22.0723	-0.1664	-9.3958	 8.6050	 
   125	-1.1616	 0.0210	22.9416	 0.6371	-9.6196	 8.6126	 
   126	-1.5798	-0.0861	21.0400	 1.3393	-9.5507	 8.5122	 
   127	-1.5450	-0.1369	22.2397	-2.4022	-7.3003	 9.2930	 
   128	-1.7308	-0.1049	20.2438	 0.5088	-6.7366	 9.3473	 
   129	-1.9205	-0.1469	20.2438	 0.5088	-7.1153	 9.2622	 
   130	-1.9980	-0.1932	20.2438	 0.5088	-6.8141	 9.3009	 
   131	-1.6921	-0.0817	17.3829	 2.6897	-6.0266	 9.9847	 
   132	-0.8596	 0.0585	17.8741	 5.9569	-4.4861	10.7653	 
   133	-1.1965	 0.0718	18.4153	 1.1840	-5.2133	10.4715	 
   134	-1.2778	-0.0486	17.1123	 5.0761	-4.5206	10.1783	 
   135	-1.1616	 0.0210	21.2418	-0.9467	-2.8382	10.1943	 
   136	-1.2004	-0.0022	16.8273	-0.4037	-0.5062	 9.8205	 
   137	-1.3862	 0.0298	16.5868	 1.8592	 2.9057	 9.3852	 
   138	-1.3126	 0.0022	17.9282	-3.9213	 6.3780	 9.3400	 
   139	-0.6273	 0.1977	 9.9521	 2.1351	12.4063	10.8249	 
   140	 0.1316	 0.3655	 8.5878	 0.5397	16.6359	10.9498	 
   141	 0.2439	 0.3611	12.0552	-2.7647	16.7648	 9.9651	 
   142	 0.2400	 0.2871	 9.7661	-2.9315	17.2294	 9.6061	 
   143	 0.3136	 0.2595	 5.0120	-1.1760	17.6380	 8.9305	 
   144	 0.0077	 0.1479	 8.8370	-1.5764	15.1552	 8.0106	 
   145	-0.2943	 0.1104	 5.6188	-0.3880	13.1845	 7.5388	 
   146	-0.2982	 0.0364	 6.5479	-1.7432	12.5434	 7.4382	 
   147	 0.4219	 0.1811	 9.1977	-5.6078	16.9798	 9.1736	 
   148	 0.4955	 0.1534	 5.9067	-2.4810	17.4229	 9.0849	 
   149	 0.3019	 0.0375	11.5556	-5.5414	18.0770	 9.4056	 
   150	 0.3367	-0.0133	 7.4427	-3.0481	18.6579	 9.7534	 
   151	 0.1896	 0.0419	 8.3374	-4.3531	18.4556	 9.4907	 
   152	-0.0388	-0.0232	 9.1977	-5.6078	16.1707	 8.1229	 
   153	-0.1511	-0.0188	 5.4501	-5.1611	14.0019	 6.8247	 
   154	 0.2283	 0.0651	 6.9861	-5.7283	15.5166	 7.8022	 
   155	 0.9872	 0.2329	 1.2119	-5.4328	17.4486	 8.2508	 
   156	 1.0647	 0.2793	 0.3860	-4.2282	15.0002	 7.2807	 
   157	 0.9137	 0.2606	 4.8476	-5.8757	13.6576	 6.6894	 
   158	 0.9137	 0.2606	 4.8476	-5.8757	13.9029	 7.0486	 
   159	 0.8014	 0.2650	 4.8476	-5.8757	12.6249	 6.2836	 
   160	 0.5420	 0.3246	570.1002	-215.4991	11.5749	 5.5843	 
   161	 0.4297	 0.3290	570.9261	-216.7037	10.7659	 5.1708	 
   162	 0.9602	 0.4317	282.9285	-108.5592	14.3719	 6.7630	 
   163	 1.1460	 0.3997	283.7544	-109.7638	15.0559	 6.3230	 
   164	 0.8053	 0.3390	281.2079	-106.0497	15.2754	 6.2420	 
   165	 0.8401	 0.2882	 4.5764	-6.6752	15.7014	 6.4970	 
   166	 0.8092	 0.4130	 5.4023	-7.8797	14.7117	 6.1877	 
   167	 0.6543	 0.3202	20.3961	-13.4163	12.9518	 5.4882	 
   168	 0.3523	 0.2827	 2.8902	-4.2158	12.1729	 4.9512	 
   169	 0.1238	 0.2175	 3.7505	-5.4706	11.6264	 4.5532	 
   170	 0.0154	 0.2959	 5.4023	-7.8797	10.5506	 4.0509	 
   171	-0.0233	 0.2727	 4.5764	-6.6752	 8.7348	 3.6718	 
   172	 0.5033	 0.3014	 5.4023	-7.8797	11.9879	 4.9820	 
   173	 0.7317	 0.3666	 4.5764	-6.6752	12.4224	 4.7466	 
   174	 0.5807	 0.3478	 4.5764	-6.6752	11.2261	 4.1013	 
   175	 0.5807	 0.3478	 5.4023	-7.8797	11.3380	 4.0975	 
   176	 0.6969	 0.4174	 6.2282	-9.0843	10.8388	 3.8695	 
   177	 0.5459	 0.3986	 2.8902	-4.2158	 8.7304	 2.9613	 
   178	 0.3562	 0.3567	-251.0717	366.1898	 7.9257	 2.6212	 
   179	 0.1703	 0.3887	-251.0717	366.1898	 7.7665	 2.4551	 
   180	-0.0194	 0.3467	-116.3136	169.6439	 7.0005	 2.1382	 
   181	-0.1743	 0.2540	-116.3136	169.6439	 6.3852	 1.8406	 
   182	-0.1743	 0.2540	-116.3136	169.6439	 6.0152	 1.9023	 
   183	 0.6194	 0.3710	-0.0004	 0.0002	10.7657	 3.8965	 
   184	 0.6582	 0.3942	-0.0004	 0.0002	 9.2295	 3.1893	 
   185	 0.3949	 0.3798	-0.0004	 0.0002	 8.6916	 2.9381	 
   186	 0.4336	 0.4030	-0.0004	 0.0002	 9.2295	 3.1893	 
   187	 0.3601	 0.4307	-0.0004	 0.0002	 8.4937	 2.7488	 
   188	 0.1316	 0.3655	-0.0004	 0.0002	 6.7381	 2.1227	 
   189	-0.0581	 0.3235	 7.9832	-11.6440	 6.2776	 1.9178	 
   190	-0.1743	 0.2540	-13.3852	 4.9426	 6.1528	 1.7015	 
   191	-0.3253	 0.2352	-0.0004	 0.0002	 5.3137	 1.4116	 
   192	-0.5150	 0.1932	-0.0004	 0.0002	 4.3197	 1.0290	 
   193	-0.3292	 0.1612	-13.3852	 4.9426	 5.4171	 1.8982	 
   194	 0.3174	 0.3335	-0.0004	 0.0002	 8.5884	 3.0887	 
   195	 0.2400	 0.2871	-0.0004	 0.0002	 5.6968	 2.2073	 
   196	 0.0890	 0.2683	-0.0004	 0.0002	 5.6107	 2.0142	 
   197	 0.1277	 0.2915	-0.0004	 0.0002	 6.3379	 2.3079	 
   198	-0.0233	 0.2727	-0.0004	 0.0002	1303.8235	-477.9604	 
   199	-0.3292	 0.1612	-0.0004	 0.0002	1304.9247	-479.5665	 
   200	-0.5189	 0.1192	-0.0004	 0.0002	1019.6114	-374.6997	 
   201	-0.7086	 0.0773	 7.9832	-11.6440	1019.9899	-375.2518	 
   202	-0.8635	-0.0155	-0.0004	 0.0002	1021.0911	-376.8579	 
   203	-1.0145	-0.0342	-0.0004	 0.0002	 0.0296	-0.7604	 
   204	-0.6738	 0.0265	-0.0004	 0.0002	 2.9213	 0.7582	 
   205	 0.0038	 0.0739	-0.0004	 0.0002	 5.2793	 1.4618	 
   206	-0.2943	 0.1104	-0.0004	 0.0002	 1.5788	 0.1670	 
   207	-0.3718	 0.0640	-5.4015	-6.7016	 1.3206	 0.2248	 
   208	-0.1860	 0.0320	-0.0004	 0.0002	 3.0332	 0.7544	 
   209	-0.2982	 0.0364	-0.0004	 0.0002	 1.2733	 0.0549	 
   210	-0.4880	-0.0056	-13.3852	 4.9426	-0.2457	-0.3588	 
   211	-0.6390	-0.0243	-0.0004	 0.0002	-0.4092	-0.5983	 
   212	-0.7164	-0.0707	-0.0004	 0.0002	-0.3361	-0.6253	 
   213	-0.8287	-0.0663	-0.0004	 0.0002	-0.8696	-0.8031	 
   214	-0.4144	-0.0332	 7.9832	-11.6440	 1.7810	 0.4296	 
   215	 0.1896	 0.0419	-0.0004	 0.0002	 3.6442	 0.9786	 
   216	 0.0425	 0.0971	-0.0004	 0.0002	 1.2044	 0.1553	 
   217	 0.0386	 0.0231	-0.0004	 0.0002	 1.6261	 0.3369	 
   218	 0.1161	 0.0695	-13.3852	 4.9426	-620.4083	908.8541	 
   219	 0.0038	 0.0739	-0.0004	 0.0002	-623.0413	909.8264	 
   220	-0.1860	 0.0320	-0.0004	 0.0002	-489.9310	713.8515	 
   221	-0.3757	-0.0100	-0.0004	 0.0002	-490.5893	714.0945	 
   222	-0.3796	-0.0840	-0.0004	 0.0002	-492.7104	714.8778	 
   223	-0.5654	-0.0519	-0.0004	 0.0002	-3.3611	-1.8698	 
   224	-0.0776	-0.0464	-0.0004	 0.0002	-0.0133	-0.2197	 
   225	 0.4916	 0.0794	-0.0004	 0.0002	 2.6417	 1.0864	 
   226	 0.3406	 0.0607	-0.0004	 0.0002	 0.5074	 0.3751	 
   227	 0.3019	 0.0375	-0.0004	 0.0002	 1.0023	 0.5298	 
   228	 0.4916	 0.0794	-13.3852	 4.9426	 2.1770	 0.8082	 
   229	 0.3406	 0.0607	-0.0004	 0.0002	 0.9162	 0.3367	 
   230	 0.0773	 0.0463	-0.0004	 0.0002	-0.0692	 0.1008	 
   231	-0.0001	-0.0001	-0.0004	 0.0002	-0.0004	 0.0004	 
   232	-0.1163	-0.0696	-0.0004	 0.0002	-0.1209	-0.1425	 
   233	-0.2325	-0.1392	-0.0004	 0.0002	-0.8437	-0.3629	 
   234	-0.1550	-0.0928	-13.3852	 4.9426	-0.3360	 0.0119	 
   235	 0.6000	 0.0010	-0.0004	 0.0002	 3.6787	 1.5656	 
   236	 0.5264	 0.0286	-0.0004	 0.0002	 1.4670	 0.8080	 
   237	 0.4490	-0.0177	-0.0004	 0.0002	 1.2346	 0.6689	 
   238	 0.5264	 0.0286	-0.0004	 0.0002	 2.3491	 1.1944	 
   239	 0.4877	 0.0054	-0.0004	 0.0002	 1.7596	 0.6999	 
   240	 0.3019	 0.0375	-0.0004	 0.0002	 0.4257	 0.2554	 
   241	 0.1122	-0.0045	-0.0004	 0.0002	 0.1546	 0.0931	 
   242	 0.0695	-0.1017	-0.0004	 0.0002	 0.0771	 0.0468	 
   243	-0.0079	-0.1480	-0.0004	 0.0002	-0.5770	-0.2740	 
   244	-0.1937	-0.1160	-0.0004	 0.0002	-1.8765	-0.7687	 
   245	 0.3328	-0.0873	-0.0004	 0.0002	 1.5746	 0.7308	 
   246	 0.6736	-0.0266	-0.0004	 0.0002	 1.9188	 0.8660	 
   247	 0.5187	-0.1194	-0.0004	 0.0002	 0.0857	 0.1935	 
   248	 0.4838	-0.0685	-0.0004	 0.0002	 1.0754	 0.5028	 
   249	 0.6309	-0.1238	-0.0004	 0.0002	 1.5659	 0.5840	 
   250	 0.3716	-0.0641	-0.0004	 0.0002	-0.0391	-0.0228	 
   251	 0.2554	-0.1337	-0.0004	 0.0002	-0.5726	-0.2006	 
   252	 0.1779	-0.1801	-0.0004	 0.0002	-0.4608	-0.2044	 
   253	 0.0618	-0.2497	-0.0004	 0.0002	-0.6975	-0.4169	 
   254	-0.0892	-0.2684	-0.0004	 0.0002	-1.5710	-0.6566	 
   255	-0.0892	-0.2684	-0.0004	 0.0002	-2.0572	-0.6645	 
   256	 0.6271	-0.1978	-0.0004	 0.0002	 2.3362	 0.9743	 
   257	 0.6309	-0.1238	-0.0004	 0.0002	 0.7011	 0.4911	 
   258	 0.5148	-0.1933	-0.0004	 0.0002	-0.0692	 0.1008	 
   259	 0.6271	-0.1978	-0.0004	 0.0002	 1.0410	 0.5529	 
   260	 0.5187	-0.1194	-0.0004	 0.0002	 0.3912	 0.3056	 
   261	 0.4373	-0.2397	-0.0004	 0.0002	-1.2525	-0.3244	 
   262	 0.2863	-0.2585	-13.3852	 4.9426	-1.8635	-0.5486	 
   263	 0.1353	-0.2773	-0.0004	 0.0002	-1.9797	-0.6181	 
   264	 0.0230	-0.2728	-0.0004	 0.0002	-2.5563	-0.8925	 
   265	-0.0931	-0.3424	-0.0004	 0.0002	-3.7827	-1.4142	 
   266	 0.0579	-0.3236	-0.0004	 0.0002	-3.3437	-0.9391	 
   267	 0.7742	-0.2530	-0.0004	 0.0002	 0.1288	 0.2901	 
   268	 0.6232	-0.2718	-0.0004	 0.0002	-2.2335	-0.4869	 
   269	 0.5457	-0.3181	-0.0004	 0.0002	-2.2335	-0.4869	 
   270	 0.6967	-0.2994	-0.0004	 0.0002	-1.6268	-0.3361	 
   271	 0.5457	-0.3181	-0.0004	 0.0002	-3.1587	-0.9699	 
   272	 0.3908	-0.4109	-0.0004	 0.0002	-4.7164	-1.4068	 
   273	 0.2785	-0.4065	14.9934	-5.5364	-4.9918	-1.6425	 
   274	 0.2011	-0.4529	-0.0004	 0.0002	-5.0779	-1.8356	 
   275	 0.0888	-0.4484	-0.0004	 0.0002	-5.8395	-2.0791	 
   276	 0.0501	-0.4716	-13.3852	 4.9426	-6.9454	-2.4579	 
   277	 0.2011	-0.4529	-0.0004	 0.0002	-6.0847	-1.8011	 
   278	 0.7316	-0.3502	-0.0004	 0.0002	-2.9177	-0.6841	 
   279	 0.4992	-0.4893	-0.0004	 0.0002	-5.6931	-1.4959	 
   280	 0.2708	-0.5545	-0.0004	 0.0002	-5.8480	-1.5887	 
   281	 0.4218	-0.5357	-0.0004	 0.0002	-5.5726	-1.3530	 
   282	 0.3792	-0.6329	-0.0004	 0.0002	-8.2060	-2.2923	 
   283	 0.1198	-0.5732	-13.3852	 4.9426	-9.1139	-2.4818	 
   284	 0.0384	-0.6936	-0.0004	 0.0002	-9.3076	-2.5977	 
   285	-0.0351	-0.6660	-0.0004	 0.0002	-9.7336	-2.8527	 
   286	-0.1474	-0.6616	-0.0004	 0.0002	-10.7362	-3.3821	 
   287	-0.2248	-0.7080	-13.3852	 4.9426	-11.5882	-3.8921	 
   288	 0.3404	-0.6561	-13.3852	 4.9426	-8.1716	-2.3425	 
   289	 0.5689	-0.5909	-0.0004	 0.0002	-8.8085	-3.0069	 
   290	 0.4179	-0.6097	-0.0004	 0.0002	-10.7965	-3.7721	 
   291	 0.5341	-0.5401	-13.3852	 4.9426	-10.1855	-3.5480	 
   292	 0.6076	-0.5677	-13.3852	 4.9426	-9.3550	-3.4048	 
   293	 0.5689	-0.5909	-5.4015	-6.7016	-10.7707	-3.9691	 
   294	 0.4953	-0.5633	-13.3852	 4.9426	-11.3086	-4.2203	 
   295	 0.4566	-0.5865	-5.4015	-6.7016	-10.9687	-4.1584	 
   296	 0.3830	-0.5589	-13.3852	 4.9426	-10.6331	-4.1698	 
   297	 0.2708	-0.5545	-5.4015	-6.7016	-10.9730	-4.2317	 
   298	 0.2708	-0.5545	-5.4015	-6.7016	-10.7363	-4.0193	 
   299	 1.0993	-0.4883	-13.3852	 4.9426	-6.2999	-2.2839	 
   300	 1.0684	-0.3635	-13.3852	 4.9426	-7.3155	-3.0334	 
   301	 0.9909	-0.4098	-13.3852	 4.9426	-7.4317	-3.1030	 
   302	 0.9909	-0.4098	-0.0004	 0.0002	-6.8551	-2.8286	 
   303	 0.9522	-0.4330	-0.0004	 0.0002	-7.4317	-3.1030	 
   304	 0.5341	-0.5401	-0.0004	 0.0002	-6.9282	-2.8016	 
   305	 0.2669	-0.6285	-0.0004	 0.0002	-5.6244	-2.2335	 
   306	 0.1507	-0.6980	-0.0004	 0.0002	-5.7319	-2.1563	 
   307	-0.0351	-0.6660	-0.0004	 0.0002	-6.4247	-2.5002	 
   308	-0.2287	-0.7820	-0.0004	 0.0002	-8.2191	-3.1496	 
   309	 0.0733	-0.7444	-0.0004	 0.0002	-5.5297	-1.8936	 
   310	 0.4488	-0.7345	-0.0004	 0.0002	-3.4040	-1.3291	 
   311	 0.1468	-0.7720	-0.0004	 0.0002	-5.3834	-1.9477	 
   312	 0.1429	-0.8460	-0.0004	 0.0002	-5.0391	-1.8124	 
   313	 0.1042	-0.8692	-0.0004	 0.0002	-4.0495	-1.5031	 
   314	-0.1939	-0.8328	-0.0004	 0.0002	-5.3016	-1.8279	 
   315	-0.2365	-0.9300	-0.0004	 0.0002	-5.9126	-2.0521	 
   316	-0.4224	-0.8979	-0.0004	 0.0002	-5.7233	-2.0096	 
   317	-0.4998	-0.9443	-0.0004	 0.0002	-5.7663	-2.1061	 
   318	-0.3875	-0.9487	-0.0004	 0.0002	-5.4522	-1.8473	 
   319	 0.2552	-0.8505	-0.0004	 0.0002	-1.5021	-0.7570	 
   320	 0.2552	-0.8505	-0.0004	 0.0002	-2.6725	-0.9620	 
   321	 0.1429	-0.8460	-0.0004	 0.0002	-2.4488	-0.9697	 
   322	 0.2204	-0.7997	-0.0004	 0.0002	-1.7259	-0.7493	 
   323	 0.1081	-0.7952	-0.0004	 0.0002	-2.5994	-0.9891	 
   324	-0.0081	-0.8648	-0.0004	 0.0002	-3.2190	-1.3600	 
   325	-0.1939	-0.8328	-0.0004	 0.0002	-3.2534	-1.3098	 
   326	-0.2713	-0.8792	-0.0004	 0.0002	-3.4384	-1.2790	 
   327	-0.3836	-0.8747	-0.0004	 0.0002	-3.7784	-1.3408	 
